time	pitch	intensity	formant1	formant2	formant3
0.01	0	0	0	0	0
0.02	0	0	0	0	0
0.03	0	61.84	127.95	1788.75	2979.56
0.04	0	62.69	495.46	2037.46	3255.8
0.05	0	60.47	144.96	1872.58	2523.68
0.06	0	55.99	1787.12	3187.91	4361.65
0.07	0	52.23	126.49	2142.67	3120.76
0.08	0	53.65	1910.34	2369.51	3769.9
0.09	0	55.52	1340.6	2450.34	3314.8
0.1	0	58.52	1320.74	2509.88	3255.74
0.11	0	59.37	1348.14	2449.53	2662.02
0.12	395.54	60.75	1184.57	2336.35	3122.67
0.13	384.48	61.9	1100.03	2643.58	3242.9
0.14	379.29	60.96	865.55	1366.36	2821.27
0.15	0	61.63	839.96	1107.03	2683.51
0.16	0	62.46	801.92	1147.63	2717.38
0.17	0	65.55	677.43	1102.88	2709.72
0.18	0	71.28	571.93	1038.24	2663.14
0.19	0	74.61	611.61	1004.15	2674.22
0.2	115.37	75.95	598.73	1034.24	2718.5
0.21	117.3	76.26	678.95	922.73	2744.99
0.22	117.46	75.94	692.5	912.14	2713.02
0.23	117.41	75.84	656.52	1038.74	2783.29
0.24	117.08	76.45	603.4	1072.09	2755.87
0.25	116.88	76.88	593.27	1078.75	2782.38
0.26	116.06	77.13	582.29	1103.75	2795.99
0.27	115.7	77.1	557.18	1170.47	2749.14
0.28	114.88	76.63	554.45	1269.42	2703.38
0.29	113.8	76.13	568	1367.13	2611.35
0.3	112.85	75.99	561.5	1616.72	2512.32
0.31	112.38	76.09	522.05	1846.15	2477.09
0.32	112.48	75.91	429.56	2047.09	2397.11
0.33	112.79	75.18	426.12	2237.8	2542.05
0.34	112.77	74.14	396.68	2226.44	2592.65
0.35	112.99	73.53	306.13	2086.87	2664.6
0.36	113.49	73.65	266.39	2154.46	3069.63
0.37	113.72	73.56	346.48	2173.68	2621.8
0.38	114.2	72.87	289.7	1658.36	2175.69
0.39	114.08	72.69	394.39	2135.69	3218.26
0.4	113.41	72.73	266.9	1406.86	2206.59
0.41	112.91	72.11	266.07	2003.52	2823.48
0.42	113.83	72.3	290.11	2128.82	2553.92
0.43	108.24	73.16	283.84	2063.19	2414.38
0.44	105.64	73.18	302.55	1930.17	2394.71
0.45	104.67	72.88	324.28	1865.93	2366.56
0.46	104.28	72.23	330.99	1831.39	2129.78
0.47	104.02	71.4	332.34	1826.95	1940.17
0.48	103.43	70.49	424.69	1815.93	1845.91
0.49	102.58	70.38	493.55	1781.49	1963.36
0.5	101.94	71.05	509.33	1733.07	2184.44
0.51	101.19	71.51	507.59	1702.83	2297.51
0.52	100.89	72.01	500.53	1631.28	2386.26
0.53	100.66	72.74	447.12	1518.18	2468.12
0.54	99.14	72.82	434.56	1394.51	2515.89
0.55	98.18	71.88	383.85	1290.15	2470.57
0.56	97.24	71.61	454.38	1244.05	2455.52
0.57	97.07	72.26	491.13	1267.64	2516.83
0.58	95.49	71.79	514.02	2114.42	2536
0.59	93.79	71.04	470.72	2325.96	2595.16
0.6	92.32	70.4	608.26	2587.26	2622.03
0.61	90.91	70.82	631.19	1284.61	2678.21
0.62	89.08	71.79	633.59	1136.88	2692.95
0.63	87.19	72.78	590.36	1244.64	2648.34
0.64	85.52	74.07	634.02	1328.01	2663.85
0.65	83.88	74.52	622.83	1365.62	2656.08
0.66	81.94	73.85	612.18	1408.3	2633.7
0.67	80.96	72.75	621.93	1452.13	2615.04
0.68	80.51	71.96	633.88	1552.76	2603.48
0.69	80.17	71.66	633.83	1590.39	2574.73
0.7	79.59	71.76	599.15	1651.67	2556.2
0.71	79.38	71.15	579.7	1672.47	2540.15
0.72	79.86	70.26	552.78	1729	2517.08
0.73	0	69.7	556.71	1873.65	2469.58
0.74	0	69.08	488.3	1885.54	2410.58
0.75	0	68.28	449.39	1888.49	2353.78
0.76	0	66.14	448.5	1906.35	2320.66
0.77	0	64.33	424.87	1952.08	2311.84
0.78	0	61.77	513.48	1823.4	2460.41
0.79	0	61.08	461.54	1659.47	2380.08
0.8	0	61.41	463.09	1780.01	2414.34
0.81	0	62.65	479.82	1742.46	2451.64
0.82	0	65.09	328.52	1771.69	2358.68
0.83	0	67.6	170.18	1802.73	2455.51
0.84	0	67.91	217.04	1684.28	2621.97
0.85	0	64.87	174.13	1598.28	2261.27
0.86	0	61.51	1362.86	2752.65	4193.24
0.87	0	63.03	1046.11	2004.49	3292.1
0.88	0	63.69	445.57	1716.23	2900.55
0.89	0	64.71	259.21	1438.42	2796.53
0.9	0	66.95	165.1	1480.87	3263.12
0.91	0	67.75	1414.12	2894.35	3939.05
0.92	478.59	67.13	1331.8	2830.83	3948.74
0.93	478.58	66.6	1445.32	3091.72	4065.73
0.94	0	64.9	1493.81	3096.36	4103.54
0.95	0	64.75	1538.49	3133.62	4180.79
0.96	408.7	66.76	1525.55	3046.15	4098.69
0.97	409.07	67.38	1472.74	3100.38	4095.68
0.98	405.5	65.64	1458.7	3122.66	4036.44
0.99	450.87	64.33	1455.19	3148.94	4098.61
1	453.4	64.85	1524.71	2983.37	3917.99
1.01	492.46	66.91	1448.17	3176.37	4111.87
1.02	485.91	66.44	1385.11	3080.94	4179.87
1.03	480.2	64.87	1437.41	3176.96	4279.34
1.04	473.29	64.28	1475.64	3028.39	4222.28
1.05	458.33	64.15	1450.63	3048.3	4098.58
1.06	449.62	65.31	1422.04	3323.62	4044.7
1.07	446.77	67.59	1427.42	3308.11	4020.93
1.08	493.74	66.7	1550.49	3136.94	3979.16
1.09	493.17	61.91	1442.41	3063.75	3821.11
1.1	490.08	59.41	1437.68	2660.38	3748.02
1.11	493.57	57.7	1467.83	2624.44	3923.16
1.12	452.92	59.77	1457.55	2794.7	4006.67
1.13	0	62.31	1473.06	2606.57	4021.43
1.14	0	62.05	1280.6	2553.67	4007.31
1.15	0	59.4	1371.32	2503.86	4004.98
1.16	0	59.86	1425.45	2442.93	4035.67
1.17	0	61.62	1556.98	2867.93	4015.12
1.18	0	61.43	1355.3	2512.09	4005.65
1.19	0	58.68	1848	2331.7	4049.88
1.2	0	56.37	1661.26	2487.93	4035.39
1.21	0	58.39	1889.81	2343.89	4004.27
1.22	0	0	0	0	0
1.23	0	0	0	0	0
1.24	0	0	0	0	0
